C:\Users\mathias\Desktop\medidas\fora_camera\fc_90_h.asc
6/29/2018 5:09:20 PM
Center(Hz);Span(Hz);RBW;Pixel;Unit;Offset(dB)
1500000000;2147483647;200 kHz;700;dBm;0.0

-59.5
-68.6
-73.1
-67.1
-63.3
-66.2
-70.9
-65.8
-69.9
-74.9
-77.0
-82.9
-85.0
-82.9
-84.1
-76.8
-84.7
-85.6
-86.4
-84.8
-78.0
-75.2
-73.3
-73.9
-83.8
-76.7
-87.3
-88.9
-87.0
-85.5
-80.6
-77.2
-80.2
-80.0
-81.8
-83.9
-84.4
-84.1
-84.2
-85.2
-73.6
-86.6
-86.6
-86.3
-87.4
-85.9
-87.0
-87.9
-87.6
-88.1
-87.2
-83.8
-87.6
-84.0
-83.6
-86.3
-87.0
-85.3
-81.8
-89.6
-90.8
-83.8
-92.6
-84.2
-89.0
-91.5
-91.0
-90.1
-92.5
-90.8
-92.6
-93.4
-92.8
-92.8
-92.4
-93.5
-94.6
-94.2
-92.2
-94.1
-91.2
-94.9
-94.3
-92.3
-92.3
-88.3
-88.0
-90.7
-93.0
-93.7
-95.0
-89.4
-93.9
-89.9
-94.9
-93.7
-95.6
-89.2
-95.8
-93.6
-91.6
-96.2
-95.4
-93.1
-96.1
-96.4
-88.1
-88.6
-85.7
-91.8
-96.7
-95.7
-96.7
-95.9
-95.7
-96.9
-93.9
-96.6
-86.0
-87.6
-91.3
-88.8
-89.1
-91.3
-91.4
-93.6
-91.9
-95.9
-97.0
-96.9
-96.7
-95.3
-95.8
-97.6
-97.6
-97.2
-97.2
-96.7
-96.9
-96.6
-97.1
-96.8
-96.8
-94.2
-94.4
-92.2
-96.9
-97.4
-95.8
-94.7
-96.6
-97.4
-97.2
-96.6
-92.9
-96.8
-96.5
-97.3
-97.3
-96.9
-95.4
-96.3
-97.0
-97.1
-97.6
-96.7
-93.0
-96.2
-95.9
-97.2
-94.3
-96.3
-93.8
-97.1
-95.6
-96.1
-96.2
-86.4
-96.5
-96.9
-97.3
-97.5
-94.6
-92.0
-94.1
-97.1
-96.1
-97.4
-97.5
-93.3
-97.7
-97.9
-97.5
-97.2
-93.3
-95.8
-96.5
-97.6
-97.7
-98.0
-96.1
-92.0
-87.0
-76.4
-75.7
-68.1
-67.7
-70.5
-91.7
-97.5
-97.6
-96.8
-92.4
-97.2
-97.8
-97.6
-97.6
-97.0
-97.1
-97.5
-97.7
-97.5
-79.8
-88.1
-97.2
-97.3
-97.3
-97.4
-96.4
-95.0
-96.8
-97.2
-97.1
-96.2
-97.6
-91.7
-96.3
-96.3
-96.8
-96.2
-95.4
-95.8
-96.5
-97.3
-97.2
-96.7
-91.8
-97.2
-96.4
-96.6
-97.1
-97.0
-91.3
-96.9
-97.2
-97.2
-97.5
-96.9
-90.7
-97.4
-97.6
-97.4
-90.9
-96.2
-96.9
-96.8
-97.1
-97.0
-97.4
-96.5
-97.0
-96.7
-97.1
-97.2
-96.4
-95.9
-97.2
-96.7
-97.2
-97.0
-96.4
-97.4
-97.4
-97.1
-97.5
-97.1
-96.7
-96.8
-97.3
-97.4
-97.3
-97.6
-97.3
-97.6
-97.5
-96.7
-97.1
-97.5
-96.4
-97.2
-97.5
-97.2
-96.7
-96.4
-97.3
-97.3
-97.4
-97.2
-97.1
-96.9
-96.6
-95.9
-97.0
-97.2
-97.2
-97.2
-97.1
-97.0
-96.7
-97.0
-96.8
-97.0
-97.5
-97.5
-97.3
-96.9
-97.0
-97.2
-97.3
-97.1
-96.9
-97.1
-96.9
-96.7
-96.6
-96.7
-96.8
-96.9
-96.6
-97.2
-96.4
-97.0
-96.9
-96.8
-96.3
-96.7
-96.6
-96.6
-96.4
-92.5
-92.9
-96.3
-97.1
-97.9
-97.9
-97.9
-97.9
-98.0
-98.0
-98.1
-98.0
-97.9
-98.2
-98.0
-98.4
-98.1
-98.4
-98.3
-98.4
-98.1
-97.9
-97.9
-97.5
-98.1
-98.1
-98.2
-98.4
-98.3
-98.3
-97.9
-97.7
-98.7
-98.0
-98.4
-98.2
-98.2
-98.2
-98.0
-97.8
-98.0
-98.3
-98.0
-98.2
-98.2
-98.3
-98.2
-98.2
-98.3
-97.7
-97.9
-97.7
-97.2
-97.9
-98.2
-97.9
-98.1
-98.2
-98.2
-97.5
-97.7
-97.9
-98.2
-96.7
-97.7
-98.2
-98.0
-97.9
-97.9
-97.8
-97.9
-97.3
-86.5
-84.3
-82.7
-71.6
-75.0
-75.1
-75.8
-79.9
-95.7
-90.4
-87.1
-80.3
-88.7
-86.1
-89.4
-70.5
-83.2
-80.1
-97.7
-97.5
-97.9
-97.7
-97.7
-98.0
-97.3
-97.5
-97.4
-97.4
-98.1
-97.6
-97.9
-97.6
-97.7
-97.5
-98.0
-98.1
-97.6
-98.2
-97.9
-98.1
-97.8
-98.3
-97.9
-97.7
-97.5
-97.5
-98.0
-98.1
-97.8
-97.4
-98.1
-97.8
-98.3
-97.8
-98.4
-98.4
-98.3
-97.9
-97.9
-98.4
-98.0
-98.2
-98.1
-98.3
-98.1
-98.0
-97.8
-98.3
-98.0
-97.9
-98.4
-97.9
-71.0
-69.5
-71.0
-69.1
-71.8
-77.2
-81.2
-75.3
-73.5
-74.1
-85.0
-85.0
-81.8
-97.8
-97.8
-97.9
-98.0
-98.0
-97.7
-98.0
-98.3
-98.2
-98.1
-96.8
-98.2
-98.3
-98.4
-98.6
-98.1
-98.1
-98.6
-98.1
-98.0
-98.2
-98.0
-98.0
-98.3
-98.0
-98.1
-98.0
-98.3
-98.2
-98.4
-98.4
-98.4
-98.6
-97.9
-98.2
-98.2
-98.3
-98.5
-98.6
-98.5
-98.3
-98.4
-98.0
-98.6
-98.3
-97.9
-98.3
-98.3
-98.7
-98.4
-97.8
-98.7
-97.8
-96.2
-93.6
-95.2
-94.5
-96.3
-96.4
-98.0
-97.1
-95.0
-93.8
-94.1
-96.0
-97.6
-97.8
-97.4
-98.3
-98.0
-96.8
-97.5
-96.1
-98.2
-98.3
-97.9
-97.8
-98.0
-97.8
-98.2
-97.8
-98.1
-97.9
-97.7
-98.0
-97.7
-97.4
-97.7
-97.5
-97.1
-97.9
-97.9
-97.9
-97.7
-97.7
-97.2
-97.9
-98.4
-97.7
-97.7
-97.7
-97.5
-97.9
-97.7
-97.8
-97.4
-97.6
-90.7
-87.2
-87.2
-86.9
-86.6
-85.7
-89.3
-88.0
-87.6
-86.7
-88.3
-89.3
-89.7
-90.7
-91.5
-97.2
-97.8
-97.4
-97.7
-97.9
-97.8
-97.4
-97.5
-97.5
-97.6
-97.4
-96.7
-97.0
-97.2
-97.5
-97.2
-97.4
-97.6
-97.3
-97.4
-97.9
-97.3
-97.4
-96.9
-97.3
-97.1
-97.4
-97.1
-97.3
-97.2
-97.2
-97.1
-97.1
-97.3
-97.1
-97.1
-97.4
-96.9
-97.0
-96.9
-97.0
-96.9
-97.2
-97.2
-96.8
-96.8
-97.1
-96.9
-97.2
-97.0
-96.9
-96.8
-97.2
-97.0
-97.1
-97.1
-96.6
-96.8
-96.6
-96.6
-96.8
-96.8
-96.9
-96.3
-96.9
-96.7
-96.7
-96.9
-96.7
-96.4
-96.3
-93.2
