C:\Users\mathias\Desktop\medidas\fora_camera\fc_90_v.asc
6/29/2018 5:13:14 PM
Center(Hz);Span(Hz);RBW;Pixel;Unit;Offset(dB)
1500000000;2147483647;200 kHz;700;dBm;0.0

-58.5
-69.0
-71.9
-67.9
-62.3
-64.2
-70.4
-65.9
-69.4
-75.1
-76.9
-82.0
-85.2
-83.2
-83.3
-76.3
-83.9
-85.1
-85.8
-83.6
-77.1
-75.9
-73.9
-72.2
-83.6
-73.3
-86.8
-86.8
-85.1
-84.2
-79.9
-78.2
-81.9
-82.6
-83.9
-84.8
-85.5
-84.8
-85.7
-85.5
-73.3
-88.8
-90.7
-90.7
-87.7
-85.1
-85.7
-86.6
-86.8
-86.9
-85.8
-82.7
-89.9
-89.4
-88.5
-85.9
-85.3
-85.3
-84.9
-88.9
-90.9
-86.5
-90.9
-86.5
-88.7
-87.9
-88.6
-89.1
-92.1
-90.3
-90.0
-91.2
-88.6
-90.4
-87.9
-90.8
-93.0
-92.7
-91.9
-93.2
-93.2
-94.4
-93.6
-92.4
-92.6
-87.0
-86.5
-89.3
-91.7
-93.7
-95.5
-87.3
-87.0
-90.5
-94.1
-94.0
-94.4
-90.7
-91.7
-88.2
-91.0
-94.9
-90.3
-90.8
-96.4
-96.3
-83.3
-84.8
-89.9
-94.8
-95.8
-95.2
-95.3
-96.0
-93.9
-94.9
-93.1
-96.6
-87.3
-86.5
-82.6
-91.6
-91.2
-92.2
-90.8
-94.3
-94.8
-96.4
-95.6
-95.9
-95.5
-93.0
-95.6
-96.1
-95.3
-95.8
-96.7
-96.0
-96.7
-95.0
-95.5
-96.6
-96.3
-91.5
-95.7
-92.0
-96.6
-96.3
-92.6
-91.8
-93.4
-96.9
-96.8
-96.5
-92.8
-96.0
-94.9
-96.8
-97.0
-95.7
-95.2
-96.3
-97.3
-96.7
-96.5
-96.3
-95.4
-96.4
-96.0
-96.3
-93.9
-95.8
-92.6
-96.8
-96.8
-95.9
-97.5
-89.1
-96.8
-97.4
-96.9
-97.4
-93.9
-92.7
-91.3
-95.9
-95.4
-97.1
-97.3
-90.4
-97.0
-97.3
-97.2
-96.7
-93.1
-94.1
-95.3
-97.2
-97.0
-97.3
-90.9
-92.4
-88.8
-76.7
-73.8
-74.5
-72.4
-72.7
-92.4
-97.1
-97.2
-97.0
-95.7
-97.3
-97.3
-97.2
-97.2
-93.3
-96.9
-97.2
-97.4
-97.4
-83.8
-87.7
-96.5
-96.7
-96.8
-97.1
-93.3
-93.0
-94.8
-97.4
-97.3
-95.9
-97.3
-93.4
-96.5
-96.9
-97.0
-96.2
-93.8
-95.3
-95.5
-97.2
-97.3
-97.0
-94.0
-97.6
-97.1
-97.0
-96.9
-96.8
-95.8
-96.6
-96.7
-96.7
-96.4
-96.6
-92.2
-96.9
-96.9
-97.3
-93.3
-96.0
-96.4
-96.9
-97.3
-97.3
-97.4
-96.2
-97.1
-94.6
-96.8
-96.9
-96.6
-96.3
-96.7
-96.8
-96.7
-95.6
-94.7
-95.3
-97.1
-96.9
-97.2
-96.8
-95.4
-95.1
-97.5
-97.2
-97.3
-97.1
-96.6
-97.2
-96.9
-97.1
-97.0
-96.7
-97.0
-97.3
-97.1
-96.8
-93.2
-94.6
-97.6
-97.4
-97.2
-97.1
-96.8
-96.8
-96.5
-96.6
-97.3
-97.5
-97.8
-96.8
-97.4
-96.9
-96.3
-97.1
-96.7
-96.5
-97.2
-97.3
-97.0
-97.5
-97.1
-97.4
-97.3
-97.3
-96.9
-97.3
-97.0
-96.9
-97.0
-97.1
-96.8
-96.9
-96.6
-96.9
-97.1
-96.8
-96.7
-96.6
-95.7
-96.6
-96.8
-96.2
-96.1
-95.1
-94.5
-96.3
-97.2
-97.8
-98.1
-97.9
-97.6
-98.0
-97.8
-98.0
-98.0
-97.9
-98.0
-98.0
-98.4
-98.0
-98.2
-98.2
-98.2
-98.1
-98.4
-98.0
-97.8
-97.8
-98.2
-98.0
-98.2
-98.1
-98.1
-97.8
-97.9
-98.0
-97.9
-98.4
-98.0
-98.4
-98.3
-98.1
-97.8
-97.4
-97.8
-97.7
-97.8
-98.2
-97.9
-98.3
-98.2
-98.1
-98.2
-97.9
-97.7
-97.2
-98.1
-97.9
-97.6
-98.0
-98.1
-98.2
-98.0
-97.7
-98.0
-97.8
-97.3
-97.6
-97.7
-98.0
-97.8
-97.9
-97.8
-98.0
-97.2
-91.5
-90.2
-91.4
-83.5
-80.8
-80.9
-86.2
-80.7
-97.1
-90.9
-92.4
-90.1
-89.5
-86.0
-84.0
-73.6
-87.1
-80.2
-97.9
-97.5
-97.7
-97.7
-97.7
-97.9
-97.8
-96.8
-95.6
-98.2
-97.8
-97.9
-98.0
-98.0
-97.8
-97.9
-98.0
-98.0
-97.8
-97.9
-97.9
-97.7
-97.7
-97.9
-98.0
-97.8
-97.5
-98.0
-98.0
-98.0
-98.0
-97.6
-97.9
-98.1
-98.1
-98.4
-98.0
-98.0
-98.1
-98.2
-98.3
-98.0
-97.9
-97.9
-98.1
-97.9
-98.1
-98.4
-98.1
-98.0
-98.1
-98.1
-98.0
-97.8
-81.1
-78.5
-76.8
-72.4
-77.9
-84.2
-87.9
-84.5
-82.6
-86.6
-83.2
-75.7
-77.6
-97.9
-97.9
-98.2
-97.7
-98.1
-98.4
-97.9
-98.1
-97.9
-98.1
-98.0
-98.3
-98.3
-98.3
-98.4
-98.6
-98.3
-98.3
-98.1
-98.5
-98.5
-98.4
-98.5
-98.5
-98.2
-98.4
-98.5
-98.7
-98.5
-98.3
-98.4
-98.2
-98.3
-97.9
-98.5
-98.7
-98.3
-98.6
-98.6
-98.4
-98.7
-98.3
-98.2
-98.5
-98.3
-98.0
-98.2
-98.7
-98.5
-98.5
-98.4
-98.2
-97.8
-97.3
-94.8
-91.8
-94.7
-93.3
-94.4
-97.8
-97.5
-97.3
-94.6
-95.5
-98.0
-97.7
-96.8
-96.0
-94.9
-97.7
-97.7
-97.9
-98.0
-98.2
-98.2
-97.7
-98.2
-97.9
-98.3
-98.2
-98.3
-98.0
-98.0
-98.2
-97.4
-97.7
-98.0
-97.7
-98.1
-97.9
-98.0
-97.7
-98.0
-98.0
-97.7
-97.8
-97.8
-97.9
-97.6
-97.8
-97.6
-97.6
-97.9
-97.8
-97.9
-97.7
-97.5
-85.8
-82.1
-81.5
-80.8
-81.7
-85.3
-84.0
-85.6
-86.3
-86.5
-90.8
-91.3
-88.7
-88.9
-90.3
-97.8
-97.4
-97.8
-97.5
-97.6
-97.5
-97.5
-97.5
-97.6
-97.2
-97.2
-97.3
-97.4
-97.2
-97.3
-97.5
-97.3
-97.2
-97.6
-97.5
-97.4
-97.5
-97.4
-97.3
-97.4
-97.2
-97.1
-96.8
-97.6
-97.2
-97.0
-97.3
-97.1
-97.2
-97.1
-97.1
-97.2
-97.2
-97.0
-96.8
-97.1
-97.4
-97.0
-97.0
-96.8
-96.9
-97.3
-96.9
-96.9
-97.1
-96.7
-96.8
-97.1
-97.2
-96.9
-96.6
-96.8
-96.7
-96.8
-96.6
-97.0
-96.8
-96.7
-96.3
-96.7
-96.4
-96.6
-96.4
-96.3
-96.3
-96.5
-96.1
